Data from USB2G569231__32__05-43-19-797.txt Node

Date: Thu Dec 14 05:43:19 BDT 2023
User: user
Spectrometer: USB2G56923
Scans to average: 1
Trigger mode: 4
Integration Time (sec): 1.000000E-1
Electric dark correction enabled: true
Boxcar width: 0
XAxis mode: Wavelengths
Number of Pixels in Spectrum: 651
>>>>>Begin Spectral Data<<<<<
350	-0
351	-0
352	-0
353	-0
354	0.01
355	1.27
356	1.79
357	1.69
358	0.01
359	1.39
360	2.08
361	1.01
362	-0.51
363	-0.17
364	0.02
365	-0.7
366	-0.01
367	1.79
368	1.63
369	1.05
370	0.41
371	-0.23
372	-0.04
373	1.07
374	-0.01
375	0.27
376	0.01
377	1.01
378	0.31
379	0.26
380	1.04
381	1.12
382	0.82
383	0
384	-0
385	-0.03
386	1.02
387	-0.11
388	0.02
389	0.41
390	-0.01
391	-1
392	-1
393	-1
394	-1
395	-1.11
396	-0.03
397	-0.01
398	0.58
399	1.01
400	1.04
401	-1.18
402	-0.02
403	0.02
404	1.1
405	0.96
406	2.01
407	0.99
408	-0.02
409	0.95
410	1.97
411	1.89
412	1.11
413	1.25
414	1.08
415	1.08
416	0.5
417	0.97
418	2.12
419	1.02
420	1
421	0.98
422	-0.21
423	1.01
424	-0.04
425	0.53
426	0.99
427	0.03
428	0.96
429	1.18
430	1.05
431	0.99
432	0.98
433	0.02
434	0.56
435	1.69
436	2.01
437	1.76
438	1.14
439	1.03
440	2.15
441	1.03
442	0.89
443	0.11
444	0.13
445	-0.17
446	-0.12
447	0.87
448	2.03
449	1
450	1.1
451	0.03
452	-0
453	0.02
454	1.1
455	0.96
456	2.02
457	1.98
458	2.33
459	2
460	1.76
461	1.61
462	0.99
463	1.1
464	0.98
465	0.89
466	1.99
467	0.99
468	-0.11
469	-0
470	-0
471	-0.01
472	0.05
473	-1.01
474	-0.16
475	0.05
476	1.07
477	1.98
478	2.57
479	3.07
480	2
481	2.09
482	1.45
483	0.91
484	0.01
485	0.97
486	1.08
487	0.01
488	-0
489	0.02
490	1.3
491	2.97
492	2.02
493	1.47
494	0.03
495	1.02
496	1.02
497	1.98
498	1.89
499	1.96
500	2.28
501	1.6
502	2.19
503	2.98
504	1.92
505	1.89
506	1.94
507	0.97
508	1.67
509	2.03
510	2.94
511	1.02
512	2.11
513	2.04
514	3.1
515	3.05
516	2.31
517	3.19
518	2.02
519	2.02
520	1.01
521	1
522	1
523	0.99
524	1.26
525	1.99
526	2.64
527	3.97
528	3.01
529	3.03
530	4.08
531	2.92
532	3
533	3
534	3
535	3.01
536	4.02
537	2.12
538	3.83
539	4.14
540	3.99
541	4
542	3.91
543	6.6
544	8.37
545	9.02
546	8.72
547	9.77
548	11.73
549	12.79
550	14.99
551	16.65
552	18.98
553	21.66
554	29.5
555	32
556	32.84
557	36.15
558	45.89
559	51.08
560	55
561	63.05
562	70.87
563	86.05
564	96.87
565	108.18
566	118.35
567	136.16
568	157.27
569	181.96
570	198.74
571	218.73
572	252.57
573	283.65
574	317.95
575	345.1
576	382.79
577	416.88
578	464.42
579	511.46
580	577.86
581	634.45
582	712.9
583	799.32
584	908.96
585	1029.97
586	1164.75
587	1312.81
588	1498.63
589	1654.74
590	1812.95
591	1925.97
592	2006.24
593	1978.8
594	1881.77
595	1714.99
596	1530.39
597	1330.56
598	1165.39
599	987.96
600	882.36
601	818.17
602	732.02
603	658.44
604	589.07
605	514.55
606	447.93
607	386.93
608	328.13
609	271.03
610	214.03
611	181.35
612	149.92
613	119.55
614	109.42
615	84.83
616	72.23
617	58.7
618	52.23
619	43.59
620	39.57
621	34.01
622	26.23
623	24.33
624	20.8
625	18.24
626	13.6
627	12.98
628	11.88
629	9.99
630	8.07
631	8.1
632	6.37
633	5.57
634	4.02
635	4.02
636	4.93
637	3.99
638	4.02
639	2.91
640	2.93
641	2.94
642	0.67
643	0.77
644	2.26
645	3.05
646	2.1
647	3
648	3.03
649	0.98
650	0.09
651	5.36
652	9.5
653	7.63
654	3.82
655	2.94
656	1.09
657	2
658	2
659	0.98
660	0.9
661	0.94
662	0.28
663	0.65
664	1.43
665	1.37
666	-0.13
667	2.06
668	0.92
669	2.07
670	1.97
671	1.99
672	2.02
673	0.97
674	1
675	0.83
676	4.13
677	3.02
678	2.41
679	2
680	1.55
681	0.6
682	0.01
683	1.1
684	1.21
685	2
686	1.99
687	2.09
688	1.96
689	2
690	3.02
691	1.01
692	0.98
693	-0.11
694	0.92
695	3.04
696	2.27
697	2.33
698	2
699	1.35
700	0.4
701	1.05
702	-0.23
703	-0.13
704	-0.01
705	0.46
706	0.89
707	0.89
708	2.1
709	2.11
710	1.78
711	0.98
712	1.31
713	2.08
714	0.74
715	1.45
716	0.69
717	1.27
718	-0.05
719	0.86
720	1.09
721	0.92
722	0.55
723	1.04
724	1.13
725	0.99
726	1
727	1.01
728	0.34
729	0.26
730	0.98
731	0.24
732	2.11
733	2
734	1.61
735	0.99
736	1
737	0.99
738	1.1
739	0.06
740	0.57
741	1.09
742	0.38
743	-0.12
744	0.97
745	1.83
746	1.02
747	1
748	1
749	1
750	1
751	0.98
752	-1.01
753	-0.01
754	-0
755	-0
756	-0
757	-0.05
758	0.95
759	-0.2
760	-0.22
761	1.07
762	0.02
763	0.58
764	0.99
765	1.84
766	0.23
767	1.01
768	-0.02
769	0
770	-0.07
771	0.06
772	1.08
773	1.06
774	-0.05
775	0.97
776	1
777	0.9
778	1.26
779	0.99
780	1.02
781	1
782	1.01
783	0.97
784	1.96
785	0.96
786	-0.06
787	0.96
788	1.63
789	0.84
790	1.99
791	2.02
792	0.04
793	1.05
794	1.12
795	1
796	0.87
797	1
798	0.14
799	0.03
800	0.99
801	1
802	2.08
803	0.82
804	1.36
805	0.88
806	1.12
807	1.03
808	1
809	1.09
810	0.99
811	1.43
812	1.41
813	0.89
814	1.99
815	0.99
816	-0.02
817	0.97
818	0.9
819	1.99
820	0.37
821	-0.05
822	0.09
823	1
824	1.38
825	0.81
826	1.96
827	0.99
828	-0.06
829	0.52
830	1.02
831	-0.12
832	-0.21
833	-1.01
834	0.1
835	-0.03
836	-0.44
837	0.11
838	1.02
839	1
840	1.23
841	1
842	0.12
843	-1
844	-1.01
845	1.07
846	1
847	0.89
848	1.99
849	2.09
850	2.1
851	1.02
852	0.87
853	0.99
854	0.02
855	1.59
856	1.75
857	0.06
858	1
859	1.08
860	1.11
861	1.77
862	1
863	1
864	1
865	1
866	0.97
867	1.08
868	2.07
869	0.08
870	0.01
871	-0.04
872	0.97
873	0.96
874	0.99
875	-0.25
876	-0.04
877	0.66
878	1
879	2.82
880	1.56
881	0.97
882	0.97
883	1.21
884	0.6
885	1.05
886	1.96
887	1
888	0.03
889	1
890	0.05
891	1.08
892	0.02
893	0.22
894	0.97
895	-0.03
896	-0.05
897	0.33
898	1.02
899	1.92
900	0.98
901	1.72
902	1
903	2.04
904	1.02
905	1
906	0.99
907	1.78
908	0.98
909	1.66
910	1.3
911	1.98
912	1.7
913	1.67
914	2
915	2.99
916	3.32
917	0.98
918	1
919	0.97
920	0.01
921	-0.01
922	0.94
923	-0.95
924	-1.1
925	-0.06
926	1.18
927	1.09
928	1
929	1
930	0.16
931	1.08
932	1.1
933	-0.04
934	1.21
935	0.74
936	0.11
937	2.07
938	0.98
939	0.71
940	0.74
941	1
942	1.02
943	2.05
944	-0.45
945	-0.21
946	0.03
947	-1.09
948	0
949	-0.98
950	-0.07
951	0.14
952	1
953	1
954	1.1
955	-0.01
956	-0.01
957	0.94
958	-1.05
959	-0.91
960	0
961	0.83
962	0.04
963	-0.07
964	0.98
965	1.57
966	-0.03
967	-1.17
968	0
969	0.16
970	1.02
971	0.98
972	1.02
973	0.99
974	1.97
975	1.4
976	-0.91
977	-0.67
978	0.82
979	2
980	2
981	0.87
982	-0.07
983	1.6
984	1.96
985	0.01
986	0.97
987	0.96
988	-0
989	0.4
990	-0.01
991	0.11
992	-0.09
993	0.06
994	-0
995	0.12
996	0.22
997	1.07
998	-0.07
999	2
1000	1.45
